# Efficiency data for the WFOS blue camera
# Provided by Jason Fucik, 07 Apr 2020
# Columns:
#    1 - Wavelength (nm)
#    2 - ADC
#    3 - Fold mirror (M4)
#    4 - 1st reflective collimator (CM1)
#    5 - 2nd reflective collimator (CM2)
#    6 - Dichroic
#    7 - Blue-arm fold mirror (BM1)
#    8 - VPH glass (VPHG)
#    9 - VPH DCG layer (VPHDCG)
#   10 - VPH glue (VPHGLU)
#   11 - Camera
#   12 - Detector
#Wavelength       ADC          M4         CM1         CM2    Dichroic         BM1        VPHG      VPHDCG      VPHGLU      Camera    Detector
#       (1)       (2)         (3)         (4)         (5)         (6)         (7)         (8)         (9)        (10)        (11)        (12)
310.0000000 0.9495938   0.9761260   0.9761260   0.9761260   1.0000000   0.9900000   0.9604000   0.9426018   0.9897271   0.8593070   0.6536690
311.0000000 0.9507294   0.9825960   0.9825960   0.9825960   1.0000000   0.9900000   0.9604000   0.9430705   0.9900839   0.8593070   0.6589620
312.0000000 0.9519470   0.9870200   0.9870200   0.9870200   1.0000000   0.9900000   0.9604000   0.9435388   0.9904395   0.8593070   0.6642350
313.0000000 0.9532314   0.9901170   0.9901170   0.9901170   1.0000000   0.9900000   0.9604000   0.9440066   0.9907942   0.8593070   0.6694840
314.0000000 0.9545750   0.9923340   0.9923340   0.9923340   1.0000000   0.9900000   0.9604000   0.9444739   0.9911478   0.8593070   0.6747090
315.0000000 0.9559741   0.9939520   0.9939520   0.9939520   1.0000000   0.9900000   0.9604000   0.9449408   0.9915004   0.8593070   0.6799070
316.0000000 0.9574213   0.9951540   0.9951540   0.9951540   1.0000000   0.9900000   0.9604000   0.9454072   0.9918520   0.8593070   0.6850770
317.0000000 0.9589011   0.9960630   0.9960630   0.9960630   1.0000000   0.9900000   0.9604000   0.9458731   0.9922025   0.8593070   0.6902160
318.0000000 0.9604058   0.9967600   0.9967600   0.9967600   1.0000000   0.9900000   0.9604000   0.9463386   0.9925521   0.8593070   0.6953220
319.0000000 0.9619357   0.9973020   0.9973020   0.9973020   1.0000000   0.9900000   0.9604000   0.9468037   0.9929007   0.8593070   0.7003950
320.0000000 0.9634713   0.9977280   0.9977280   0.9977280   1.0000000   0.9900000   0.9604000   0.9472682   0.9932482   0.8593070   0.7054310
321.0000000 0.9650087   0.9980700   0.9980700   0.9980700   1.0000000   0.9900000   0.9604000   0.9477323   0.9931325   0.8593070   0.7104280
322.0000000 0.9665441   0.9983450   0.9983450   0.9983450   1.0000000   0.9900000   0.9604000   0.9481960   0.9930166   0.8593070   0.7153860
323.0000000 0.9680579   0.9985700   0.9985700   0.9985700   1.0000000   0.9900000   0.9604000   0.9486592   0.9929006   0.8593070   0.7203020
324.0000000 0.9695500   0.9987550   0.9987550   0.9987550   1.0000000   0.9900000   0.9604000   0.9491220   0.9927846   0.8593070   0.7251740
325.0000000 0.9710125   0.9989080   0.9989080   0.9989080   1.0000000   0.9900000   0.9604000   0.9495843   0.9926684   0.8593070   0.7300000
326.0000000 0.9724297   0.9990370   0.9990370   0.9990370   1.0000000   0.9900000   0.9604000   0.9500462   0.9925521   0.8593070   0.7347770
327.0000000 0.9737936   0.9991110   0.9991110   0.9991110   1.0000000   0.9900000   0.9604000   0.9505076   0.9924357   0.8593070   0.7394940
328.0000000 0.9750999   0.9991700   0.9991700   0.9991700   1.0000000   0.9900000   0.9604000   0.9509685   0.9923192   0.8593070   0.7441400
329.0000000 0.9763409   0.9992160   0.9992160   0.9992160   1.0000000   0.9900000   0.9604000   0.9514291   0.9922025   0.8593060   0.7487030
330.0000000 0.9775004   0.9992520   0.9992520   0.9992520   1.0000000   0.9900000   0.9604000   0.9518891   0.9920858   0.8593060   0.7531700
331.0000000 0.9785783   0.9992790   0.9992790   0.9992790   1.0000000   0.9900000   0.9604000   0.9523488   0.9922025   0.8593060   0.7575300
332.0000000 0.9795704   0.9992990   0.9992990   0.9992990   1.0000000   0.9900000   0.9604000   0.9528079   0.9923192   0.8593060   0.7617720
333.0000000 0.9804845   0.9993100   0.9993100   0.9993100   1.0000000   0.9900000   0.9604000   0.9532667   0.9924357   0.8593060   0.7658830
334.0000000 0.9813242   0.9993140   0.9993140   0.9993140   1.0000000   0.9900000   0.9604000   0.9537250   0.9925521   0.8593060   0.7698510
335.0000000 0.9820935   0.9993110   0.9993110   0.9993110   1.0000000   0.9900000   0.9604000   0.9541828   0.9926684   0.8593060   0.7736640
336.0000000 0.9827922   0.9993000   0.9993000   0.9993000   1.0000000   0.9900000   0.9604000   0.9546403   0.9927846   0.8593060   0.7773120
337.0000000 0.9834280   0.9992800   0.9992800   0.9992800   1.0000000   0.9900000   0.9604000   0.9550973   0.9929006   0.8593060   0.7807810
338.0000000 0.9840048   0.9992500   0.9992500   0.9992500   1.0000000   0.9900000   0.9604000   0.9555538   0.9930166   0.8593060   0.7840600
339.0000000 0.9845266   0.9992100   0.9992100   0.9992100   1.0000000   0.9900000   0.9604000   0.9560099   0.9931325   0.8593060   0.7871370
340.0000000 0.9849932   0.9991550   0.9991550   0.9991550   1.0000000   0.9900000   0.9604000   0.9564656   0.9932482   0.8593060   0.7900000
341.0000000 0.9854995   0.9991430   0.9991430   0.9991430   1.0000000   0.9900000   0.9604000   0.9569208   0.9933639   0.8593060   0.7924450
342.0000000 0.9859467   0.9991250   0.9991250   0.9991250   1.0000000   0.9900000   0.9604000   0.9573756   0.9934794   0.8593060   0.7946570
343.0000000 0.9863346   0.9991010   0.9991010   0.9991010   1.0000000   0.9900000   0.9604000   0.9578300   0.9935948   0.8593060   0.7966850
344.0000000 0.9866711   0.9990700   0.9990700   0.9990700   1.0000000   0.9900000   0.9604000   0.9582840   0.9937101   0.8593060   0.7985810
345.0000000 0.9869603   0.9990300   0.9990300   0.9990300   1.0000000   0.9900000   0.9604000   0.9587375   0.9938253   0.8593060   0.8003950
346.0000000 0.9872058   0.9989800   0.9989800   0.9989800   1.0000000   0.9900000   0.9604000   0.9591906   0.9939404   0.8593060   0.8021770
347.0000000 0.9874079   0.9989180   0.9989180   0.9989180   1.0000000   0.9900000   0.9604000   0.9596432   0.9940554   0.8593060   0.8039780
348.0000000 0.9875783   0.9988390   0.9988390   0.9988390   1.0000000   0.9900000   0.9604000   0.9600955   0.9941703   0.8593060   0.8058480
349.0000000 0.9877091   0.9987410   0.9987410   0.9987410   1.0000000   0.9900000   0.9604000   0.9605473   0.9942850   0.8593060   0.8078390
350.0000000 0.9878161   0.9986150   0.9986150   0.9986150   1.0000000   0.9900000   0.9604000   0.9609987   0.9943997   0.8593060   0.8100000
351.0000000 0.9879588   0.9981320   0.9981320   0.9981320   1.0000000   0.9900000   0.9604000   0.9614496   0.9945142   0.8593060   0.8123520
352.0000000 0.9880697   0.9973590   0.9973590   0.9973590   1.0000000   0.9900000   0.9604000   0.9619002   0.9946287   0.8593060   0.8148100
353.0000000 0.9881451   0.9960390   0.9960390   0.9960390   1.0000000   0.9900000   0.9604000   0.9623503   0.9947430   0.8593060   0.8173880
354.0000000 0.9881926   0.9936240   0.9936240   0.9936240   0.9945050   0.9900000   0.9604000   0.9628000   0.9948573   0.8593050   0.8201010
355.0000000 0.9882085   0.9889860   0.9889860   0.9889860   1.0030900   0.9900000   0.9604000   0.9632493   0.9949714   0.8593050   0.8229620
356.0000000 0.9881966   0.9810840   0.9810840   0.9810840   1.0027900   0.9900000   0.9604000   0.9636981   0.9950854   0.8593050   0.8259860
357.0000000 0.9881570   0.9756060   0.9756060   0.9756060   0.9977600   0.9900000   0.9604000   0.9641466   0.9951993   0.8593050   0.8291880
358.0000000 0.9880975   0.9810080   0.9810080   0.9810080   0.9921410   0.9900000   0.9604000   0.9645946   0.9953131   0.8593050   0.8325810
359.0000000 0.9880103   0.9882290   0.9882290   0.9882290   0.9946160   0.9900000   0.9604000   0.9650422   0.9954268   0.8593050   0.8361800
360.0000000 0.9879072   0.9925780   0.9925780   0.9925780   0.9965080   0.9900000   0.9604000   0.9654894   0.9955404   0.8593050   0.8400000
361.0000000 0.9878161   0.9950150   0.9950150   0.9950150   0.9978750   0.9900000   0.9604000   0.9659362   0.9956539   0.8593050   0.8444570
362.0000000 0.9877011   0.9963820   0.9963820   0.9963820   0.9987730   0.9900000   0.9604000   0.9663825   0.9957673   0.8593050   0.8492570
363.0000000 0.9875624   0.9972030   0.9972030   0.9972030   0.9992610   0.9900000   0.9604000   0.9668285   0.9958806   0.8593050   0.8543610
364.0000000 0.9874039   0.9977280   0.9977280   0.9977280   0.9995640   0.9900000   0.9604000   0.9672740   0.9959937   0.8593050   0.8597310
365.0000000 0.9872257   0.9980790   0.9980790   0.9980790   0.9994570   0.9900000   0.9604000   0.9677192   0.9961068   0.8593050   0.8653270
366.0000000 0.9870315   0.9983200   0.9983200   0.9983200   0.9990550   0.9900000   0.9604000   0.9681639   0.9962198   0.8593050   0.8711100
367.0000000 0.9868216   0.9984890   0.9984890   0.9984890   0.9984740   0.9900000   0.9604000   0.9686082   0.9963326   0.8593050   0.8770420
368.0000000 0.9865999   0.9986080   0.9986080   0.9986080   0.9978290   0.9900000   0.9604000   0.9690521   0.9964454   0.8593050   0.8830840
369.0000000 0.9863663   0.9986900   0.9986900   0.9986900   0.9972630   0.9900000   0.9604000   0.9694956   0.9965581   0.8593050   0.8891960
370.0000000 0.9861248   0.9987430   0.9987430   0.9987430   0.9966330   0.9900000   0.9604000   0.9699387   0.9966706   0.8593050   0.8953410
371.0000000 0.9858952   0.9987800   0.9987800   0.9987800   0.9960110   0.9900000   0.9604000   0.9703814   0.9965581   0.8593050   0.9014790
372.0000000 0.9856499   0.9987980   0.9987980   0.9987980   0.9954690   0.9900000   0.9604000   0.9708237   0.9964454   0.8593050   0.9075710
373.0000000 0.9853967   0.9987980   0.9987980   0.9987980   0.9950770   0.9900000   0.9604000   0.9712656   0.9963326   0.8593050   0.9135790
374.0000000 0.9851316   0.9987830   0.9987830   0.9987830   0.9948530   0.9900000   0.9604000   0.9717071   0.9962198   0.8593050   0.9194630
375.0000000 0.9848627   0.9987520   0.9987520   0.9987520   0.9947790   0.9900000   0.9604000   0.9721481   0.9961068   0.8593050   0.9251850
376.0000000 0.9845820   0.9987030   0.9987030   0.9987030   0.9948570   0.9900000   0.9604000   0.9725888   0.9959937   0.8593050   0.9307050
377.0000000 0.9842934   0.9986370   0.9986370   0.9986370   0.9950870   0.9900000   0.9604000   0.9730291   0.9958806   0.8593050   0.9359860
378.0000000 0.9840048   0.9985490   0.9985490   0.9985490   0.9954690   0.9900000   0.9604000   0.9734690   0.9957673   0.8593050   0.9409880
379.0000000 0.9837085   0.9984370   0.9984370   0.9984370   0.9963010   0.9900000   0.9604000   0.9739085   0.9956539   0.8593050   0.9456720
380.0000000 0.9834122   0.9982960   0.9982960   0.9982960   0.9972850   0.9900000   0.9604000   0.9743476   0.9955404   0.8593050   0.9500000
381.0000000 0.9831239   0.9981950   0.9981950   0.9981950   0.9982090   0.9900000   0.9604000   0.9747863   0.9954268   0.8593050   0.9533920
382.0000000 0.9828317   0.9980710   0.9980710   0.9980710   0.9988620   0.9900000   0.9604000   0.9752246   0.9953131   0.8593050   0.9565030
383.0000000 0.9825356   0.9979220   0.9979220   0.9979220   0.9990300   0.9900000   0.9604000   0.9756625   0.9951993   0.8593050   0.9593470
384.0000000 0.9822356   0.9977430   0.9977430   0.9977430   0.9980500   0.9900000   0.9604000   0.9761000   0.9950854   0.8593050   0.9619380
385.0000000 0.9819317   0.9975260   0.9975260   0.9975260   0.9965850   0.9900000   0.9604000   0.9765371   0.9949714   0.8593050   0.9642880
386.0000000 0.9816279   0.9972660   0.9972660   0.9972660   0.9949590   0.9900000   0.9604000   0.9769739   0.9948573   0.8593050   0.9664120
387.0000000 0.9813242   0.9969510   0.9969510   0.9969510   0.9934950   0.9900000   0.9604000   0.9774102   0.9947430   0.8593050   0.9683230
388.0000000 0.9810167   0.9965700   0.9965700   0.9965700   0.9925140   0.9900000   0.9604000   0.9778462   0.9946287   0.8593040   0.9700360
389.0000000 0.9807091   0.9961060   0.9961060   0.9961060   0.9925800   0.9900000   0.9604000   0.9782817   0.9945142   0.8593040   0.9715620
390.0000000 0.9804017   0.9955390   0.9955390   0.9955390   0.9931310   0.9900000   0.9604000   0.9787169   0.9943997   0.8593040   0.9729170
391.0000000 0.9800943   0.9947180   0.9947180   0.9947180   0.9940030   0.9900000   0.9604000   0.9791517   0.9943997   0.8593040   0.9741130
392.0000000 0.9797831   0.9936830   0.9936830   0.9936830   0.9950380   0.9900000   0.9604000   0.9795861   0.9943997   0.8593040   0.9751640
393.0000000 0.9794719   0.9923790   0.9923790   0.9923790   0.9960730   0.9900000   0.9604000   0.9800201   0.9943997   0.8593040   0.9760850
394.0000000 0.9791648   0.9907480   0.9907480   0.9907480   0.9969160   0.9900000   0.9604000   0.9804538   0.9943997   0.8593040   0.9768880
395.0000000 0.9788538   0.9887430   0.9887430   0.9887430   0.9977600   0.9900000   0.9604000   0.9808870   0.9943997   0.8593040   0.9775870
396.0000000 0.9785468   0.9863640   0.9863640   0.9863640   0.9985400   0.9900000   0.9604000   0.9813199   0.9943997   0.8593040   0.9781960
397.0000000 0.9782399   0.9837090   0.9837090   0.9837090   0.9991910   0.9900000   0.9604000   0.9817524   0.9943997   0.8593040   0.9787280
398.0000000 0.9779369   0.9810320   0.9810320   0.9810320   0.9996500   0.9900000   0.9604000   0.9821845   0.9943997   0.8593040   0.9791970
399.0000000 0.9776341   0.9787400   0.9787400   0.9787400   0.9997910   0.9900000   0.9604000   0.9826162   0.9943997   0.8593040   0.9796160
400.0000000 0.9773392   0.9772730   0.9772730   0.9772730   0.9997390   0.9900000   0.9604000   0.9830476   0.9943997   0.8593040   0.9800000
401.0000000 0.9770404   0.9765370   0.9765370   0.9765370   0.9995730   0.9900000   0.9604000   0.9831510   1.0000000   0.8593040   0.9810790
402.0000000 0.9767456   0.9767720   0.9767720   0.9767720   0.9993710   0.9900000   0.9604000   0.9832545   1.0000000   0.8593040   0.9820990
403.0000000 0.9764548   0.9777220   0.9777220   0.9777220   0.9992110   0.9900000   0.9604000   0.9833579   1.0000000   0.8593040   0.9830630
404.0000000 0.9761680   0.9790590   0.9790590   0.9790590   0.9992540   0.9900000   0.9604000   0.9834613   1.0000000   0.8593040   0.9839700
405.0000000 0.9758852   0.9805080   0.9805080   0.9805080   0.9993390   0.9900000   0.9604000   0.9835647   1.0000000   0.8593040   0.9848220
406.0000000 0.9756064   0.9818930   0.9818930   0.9818930   0.9994470   0.9900000   0.9604000   0.9836680   1.0000000   0.8593040   0.9856200
407.0000000 0.9753315   0.9831240   0.9831240   0.9831240   0.9995590   0.9900000   0.9604000   0.9837714   1.0000000   0.8593040   0.9863640
408.0000000 0.9750646   0.9841660   0.9841660   0.9841660   0.9996550   0.9900000   0.9604000   0.9838747   1.0000000   0.8593040   0.9870550
409.0000000 0.9748056   0.9850170   0.9850170   0.9850170   0.9998520   0.9900000   0.9604000   0.9839780   1.0000000   0.8593040   0.9876940
410.0000000 0.9745505   0.9856860   0.9856860   0.9856860   1.0000300   0.9900000   0.9604000   0.9840813   1.0000000   0.8593040   0.9882820
411.0000000 0.9742956   0.9861900   0.9861900   0.9861900   1.0001300   0.9900000   0.9604000   0.9841845   1.0000000   0.8593040   0.9888210
412.0000000 0.9740484   0.9865430   0.9865430   0.9865430   1.0000600   0.9900000   0.9604000   0.9842877   1.0000000   0.8593040   0.9893100
413.0000000 0.9738053   0.9867590   0.9867590   0.9867590   0.9997690   0.9900000   0.9604000   0.9843910   1.0000000   0.8593040   0.9897500
414.0000000 0.9735701   0.9868490   0.9868490   0.9868490   0.9989150   0.9900000   0.9604000   0.9844941   1.0000000   0.8593040   0.9901430
415.0000000 0.9733427   0.9868220   0.9868220   0.9868220   0.9978310   0.9900000   0.9604000   0.9845973   1.0000000   0.8593040   0.9904900
416.0000000 0.9731193   0.9866830   0.9866830   0.9866830   0.9967070   0.9900000   0.9604000   0.9847004   1.0000000   0.8593040   0.9907900
417.0000000 0.9729038   0.9864360   0.9864360   0.9864360   0.9957320   0.9900000   0.9604000   0.9848036   1.0000000   0.8593040   0.9910460
418.0000000 0.9726922   0.9860850   0.9860850   0.9860850   0.9950960   0.9900000   0.9604000   0.9849067   1.0000000   0.8593040   0.9912580
419.0000000 0.9724885   0.9856300   0.9856300   0.9856300   0.9951490   0.9900000   0.9604000   0.9850097   1.0000000   0.8593040   0.9914270
420.0000000 0.9722926   0.9850740   0.9850740   0.9850740   0.9955410   0.9900000   0.9604000   0.9851128   1.0000000   0.8593040   0.9915530
421.0000000 0.9720929   0.9844200   0.9844200   0.9844200   0.9961450   0.9900000   0.9604000   0.9852158   1.0000000   0.8593040   0.9916380
422.0000000 0.9718971   0.9836740   0.9836740   0.9836740   0.9968340   0.9900000   0.9604000   0.9853188   1.0000000   0.8593040   0.9916820
423.0000000 0.9717131   0.9828450   0.9828450   0.9828450   0.9974820   0.9900000   0.9604000   0.9854218   1.0000000   0.8593040   0.9916870
424.0000000 0.9715291   0.9819470   0.9819470   0.9819470   0.9979440   0.9900000   0.9604000   0.9855248   1.0000000   0.8593040   0.9916530
425.0000000 0.9713530   0.9810030   0.9810030   0.9810030   0.9983650   0.9900000   0.9604000   0.9856278   1.0000000   0.8593040   0.9915810
426.0000000 0.9711847   0.9800400   0.9800400   0.9800400   0.9987070   0.9900000   0.9604000   0.9857307   1.0000000   0.8593040   0.9914720
427.0000000 0.9710204   0.9790980   0.9790980   0.9790980   0.9989330   0.9900000   0.9604000   0.9858336   1.0000000   0.8593040   0.9913270
428.0000000 0.9708600   0.9782190   0.9782190   0.9782190   0.9990050   0.9900000   0.9604000   0.9859365   1.0000000   0.8593040   0.9911460
429.0000000 0.9707035   0.9774510   0.9774510   0.9774510   0.9987460   0.9900000   0.9604000   0.9860393   1.0000000   0.8593040   0.9909310
430.0000000 0.9705509   0.9768400   0.9768400   0.9768400   0.9983320   0.9900000   0.9604000   0.9861422   1.0000000   0.8593040   0.9906820
431.0000000 0.9703945   0.9764240   0.9764240   0.9764240   0.9978820   0.9900000   0.9604000   0.9862450   1.0000000   0.8593040   0.9904010
432.0000000 0.9702381   0.9762260   0.9762260   0.9762260   0.9975100   0.9900000   0.9604000   0.9863478   1.0000000   0.8593040   0.9900880
433.0000000 0.9700895   0.9762520   0.9762520   0.9762520   0.9973340   0.9900000   0.9604000   0.9864506   1.0000000   0.8593040   0.9897440
434.0000000 0.9699448   0.9764920   0.9764920   0.9764920   0.9976320   0.9900000   0.9604000   0.9865533   1.0000000   0.8593040   0.9893700
435.0000000 0.9698041   0.9769160   0.9769160   0.9769160   0.9981250   0.9900000   0.9604000   0.9866561   1.0000000   0.8593030   0.9889660
436.0000000 0.9696712   0.9774880   0.9774880   0.9774880   0.9987080   0.9900000   0.9604000   0.9867588   1.0000000   0.8593030   0.9885340
437.0000000 0.9695422   0.9781650   0.9781650   0.9781650   0.9992760   0.9900000   0.9604000   0.9868615   1.0000000   0.8593030   0.9880750
438.0000000 0.9694210   0.9789050   0.9789050   0.9789050   0.9997250   0.9900000   0.9604000   0.9869641   1.0000000   0.8593030   0.9875890
439.0000000 0.9692999   0.9796720   0.9796720   0.9796720   1.0001700   0.9900000   0.9604000   0.9870668   1.0000000   0.8593030   0.9870780
440.0000000 0.9691905   0.9804330   0.9804330   0.9804330   1.0004900   0.9900000   0.9604000   0.9871694   1.0000000   0.8593030   0.9865410
441.0000000 0.9690772   0.9811670   0.9811670   0.9811670   1.0005800   0.9900000   0.9604000   0.9872720   1.0000000   0.8593030   0.9859810
442.0000000 0.9689678   0.9818540   0.9818540   0.9818540   1.0003300   0.9900000   0.9604000   0.9873746   1.0000000   0.8593030   0.9853970
443.0000000 0.9688662   0.9824850   0.9824850   0.9824850   0.9996200   0.9900000   0.9604000   0.9874772   1.0000000   0.8593030   0.9847910
