# Efficiency data for the WFOS red camera
# Provided by Jason Fucik, 07 Apr 2020
# Columns:
#    1 - Wavelength (nm)
#    2 - ADC
#    3 - Fold mirror (M4)
#    4 - 1st reflective collimator (CM1)
#    5 - 2nd reflective collimator (CM2)
#    6 - Dichroic
#    7 - 1st red-arm fold mirror (RM1)
#    8 - 2nd red-arm fold mirror (RM2)
#    9 - VPH glass (VPHG)
#   10 - VPH DCG layer (VPHDCG)
#   11 - VPH glue (VPHGLU)
#   12 - Camera
#   13 - Detector
#Wavelength       ADC          M4         CM1         CM2    Dichroic         RM1         RM2        VPHG      VPHDCG      VPHGLU      Camera    Detector
#       (1)       (2)         (3)         (4)         (5)         (6)         (7)         (8)         (9)        (10)        (11)        (12)        (13)
540.0000000 0.9739504   0.9786080   0.9786080   0.9786080   0.0000000   0.9900000   0.9900000   0.9604000   0.9946380   0.9849622   0.8880780   0.8952640
541.0000000 0.9740720   0.9789620   0.9789620   0.9789620   0.0000000   0.9900000   0.9900000   0.9604000   0.9946717   0.9849622   0.8880780   0.8958440
542.0000000 0.9741936   0.9793180   0.9793180   0.9793180   0.0007704   0.9900000   0.9900000   0.9604000   0.9947054   0.9849622   0.8880780   0.8964030
543.0000000 0.9743112   0.9796720   0.9796720   0.9796720   0.0250023   0.9900000   0.9900000   0.9604000   0.9947390   0.9849622   0.8880780   0.8969380
544.0000000 0.9744329   0.9800200   0.9800200   0.9800200   0.0678503   0.9900000   0.9900000   0.9604000   0.9947727   0.9849622   0.8880780   0.8974500
545.0000000 0.9745545   0.9803590   0.9803590   0.9803590   0.1253190   0.9900000   0.9900000   0.9604000   0.9948064   0.9849622   0.8880780   0.8979380
546.0000000 0.9746722   0.9806880   0.9806880   0.9806880   0.1938960   0.9900000   0.9900000   0.9604000   0.9948401   0.9849622   0.8880780   0.8984020
547.0000000 0.9747938   0.9810020   0.9810020   0.9810020   0.2700690   0.9900000   0.9900000   0.9604000   0.9948738   0.9849622   0.8880780   0.8988400
548.0000000 0.9749116   0.9813020   0.9813020   0.9813020   0.3503270   0.9900000   0.9900000   0.9604000   0.9949074   0.9849622   0.8880780   0.8992530
549.0000000 0.9750293   0.9815840   0.9815840   0.9815840   0.4332390   0.9900000   0.9900000   0.9604000   0.9949411   0.9849622   0.8880780   0.8996400
550.0000000 0.9751470   0.9818490   0.9818490   0.9818490   0.5202350   0.9900000   0.9900000   0.9604000   0.9949748   0.9849622   0.8880780   0.9000000
551.0000000 0.9752648   0.9820910   0.9820910   0.9820910   0.6068170   0.9900000   0.9900000   0.9604000   0.9950085   0.9849622   0.8880780   0.9003330
552.0000000 0.9753787   0.9823130   0.9823130   0.9823130   0.6884870   0.9900000   0.9900000   0.9604000   0.9950421   0.9849622   0.8880780   0.9006400
553.0000000 0.9754964   0.9825160   0.9825160   0.9825160   0.7607460   0.9900000   0.9900000   0.9604000   0.9950758   0.9849622   0.8880780   0.9009210
554.0000000 0.9756103   0.9827000   0.9827000   0.9827000   0.8224080   0.9900000   0.9900000   0.9604000   0.9951095   0.9849622   0.8880780   0.9011780
555.0000000 0.9757242   0.9828630   0.9828630   0.9828630   0.8746590   0.9900000   0.9900000   0.9604000   0.9951431   0.9849622   0.8880780   0.9014100
556.0000000 0.9758381   0.9830060   0.9830060   0.9830060   0.9175160   0.9900000   0.9900000   0.9604000   0.9951768   0.9849622   0.8880780   0.9016190
557.0000000 0.9759520   0.9831300   0.9831300   0.9831300   0.9509940   0.9900000   0.9900000   0.9604000   0.9952104   0.9849622   0.8880780   0.9018060
558.0000000 0.9760619   0.9832330   0.9832330   0.9832330   0.9751100   0.9900000   0.9900000   0.9604000   0.9952441   0.9849622   0.8880780   0.9019710
559.0000000 0.9761759   0.9833170   0.9833170   0.9833170   0.9919890   0.9900000   0.9900000   0.9604000   0.9952777   0.9849622   0.8880780   0.9021160
560.0000000 0.9762859   0.9833800   0.9833800   0.9833800   0.9995050   0.9900000   0.9900000   0.9604000   0.9953114   0.9849622   0.8880780   0.9022400
561.0000000 0.9763998   0.9834250   0.9834250   0.9834250   1.0005100   0.9900000   0.9900000   0.9604000   0.9953450   0.9849622   0.8880780   0.9023450
562.0000000 0.9765098   0.9834490   0.9834490   0.9834490   0.9978660   0.9900000   0.9900000   0.9604000   0.9953787   0.9849622   0.8880780   0.9024320
563.0000000 0.9766198   0.9834550   0.9834550   0.9834550   0.9944190   0.9900000   0.9900000   0.9604000   0.9954123   0.9849622   0.8880780   0.9025010
564.0000000 0.9767338   0.9834410   0.9834410   0.9834410   0.9961390   0.9900000   0.9900000   0.9604000   0.9954460   0.9849622   0.8880770   0.9025540
565.0000000 0.9768438   0.9834090   0.9834090   0.9834090   0.9970590   0.9900000   0.9900000   0.9604000   0.9954796   0.9849622   0.8880770   0.9025900
566.0000000 0.9769539   0.9833570   0.9833570   0.9833570   0.9973820   0.9900000   0.9900000   0.9604000   0.9955132   0.9849622   0.8880770   0.9026110
567.0000000 0.9770600   0.9832880   0.9832880   0.9832880   0.9973140   0.9900000   0.9900000   0.9604000   0.9955469   0.9849622   0.8880770   0.9026180
568.0000000 0.9771701   0.9832000   0.9832000   0.9832000   0.9970580   0.9900000   0.9900000   0.9604000   0.9955805   0.9849622   0.8880770   0.9026110
569.0000000 0.9772762   0.9830940   0.9830940   0.9830940   0.9970320   0.9900000   0.9900000   0.9604000   0.9956141   0.9849622   0.8880770   0.9025920
570.0000000 0.9773824   0.9829710   0.9829710   0.9829710   0.9968180   0.9900000   0.9900000   0.9604000   0.9956478   0.9849622   0.8880770   0.9025600
571.0000000 0.9774886   0.9828300   0.9828300   0.9828300   0.9964900   0.9900000   0.9900000   0.9604000   0.9956814   0.9849622   0.8880770   0.9025170
572.0000000 0.9775947   0.9826730   0.9826730   0.9826730   0.9961190   0.9900000   0.9900000   0.9604000   0.9957150   0.9849622   0.8880770   0.9024640
573.0000000 0.9777009   0.9824980   0.9824980   0.9824980   0.9957800   0.9900000   0.9900000   0.9604000   0.9957486   0.9849622   0.8880770   0.9024010
574.0000000 0.9778032   0.9823080   0.9823080   0.9823080   0.9955530   0.9900000   0.9900000   0.9604000   0.9957822   0.9849622   0.8880770   0.9023300
575.0000000 0.9779094   0.9821030   0.9821030   0.9821030   0.9953580   0.9900000   0.9900000   0.9604000   0.9958159   0.9849622   0.8880770   0.9022500
576.0000000 0.9780117   0.9818820   0.9818820   0.9818820   0.9952130   0.9900000   0.9900000   0.9604000   0.9958495   0.9849622   0.8880770   0.9021630
577.0000000 0.9781140   0.9816470   0.9816470   0.9816470   0.9951380   0.9900000   0.9900000   0.9604000   0.9958831   0.9849622   0.8880770   0.9020700
578.0000000 0.9782162   0.9814000   0.9814000   0.9814000   0.9951510   0.9900000   0.9900000   0.9604000   0.9959167   0.9849622   0.8880770   0.9019710
579.0000000 0.9783146   0.9811400   0.9811400   0.9811400   0.9953850   0.9900000   0.9900000   0.9604000   0.9959503   0.9849622   0.8880770   0.9018680
580.0000000 0.9784130   0.9808690   0.9808690   0.9808690   0.9957080   0.9900000   0.9900000   0.9604000   0.9959839   0.9849622   0.8880770   0.9017600
581.0000000 0.9785114   0.9805890   0.9805890   0.9805890   0.9960350   0.9900000   0.9900000   0.9604000   0.9960175   0.9849622   0.8880770   0.9016490
582.0000000 0.9786098   0.9803000   0.9803000   0.9803000   0.9962820   0.9900000   0.9900000   0.9604000   0.9960511   0.9849622   0.8880770   0.9015360
583.0000000 0.9787081   0.9800050   0.9800050   0.9800050   0.9963660   0.9900000   0.9900000   0.9604000   0.9960847   0.9849622   0.8880770   0.9014210
584.0000000 0.9788026   0.9797050   0.9797050   0.9797050   0.9960330   0.9900000   0.9900000   0.9604000   0.9961183   0.9849622   0.8880770   0.9013060
585.0000000 0.9788971   0.9794030   0.9794030   0.9794030   0.9955350   0.9900000   0.9900000   0.9604000   0.9961519   0.9849622   0.8880770   0.9011900
586.0000000 0.9789916   0.9791000   0.9791000   0.9791000   0.9949850   0.9900000   0.9900000   0.9604000   0.9961855   0.9849622   0.8880770   0.9010750
587.0000000 0.9790861   0.9788000   0.9788000   0.9788000   0.9944920   0.9900000   0.9900000   0.9604000   0.9962191   0.9849622   0.8880770   0.9009620
588.0000000 0.9791766   0.9785040   0.9785040   0.9785040   0.9941670   0.9900000   0.9900000   0.9604000   0.9962526   0.9849622   0.8880770   0.9008510
589.0000000 0.9792711   0.9782160   0.9782160   0.9782160   0.9943360   0.9900000   0.9900000   0.9604000   0.9962862   0.9849622   0.8880770   0.9007440
590.0000000 0.9793617   0.9779370   0.9779370   0.9779370   0.9946730   0.9900000   0.9900000   0.9604000   0.9963198   0.9849622   0.8880770   0.9006400
591.0000000 0.9794523   0.9776720   0.9776720   0.9776720   0.9950570   0.9900000   0.9900000   0.9604000   0.9963534   0.9849622   0.8880770   0.9005410
592.0000000 0.9795468   0.9774220   0.9774220   0.9774220   0.9953650   0.9900000   0.9900000   0.9604000   0.9963870   0.9849622   0.8880770   0.9004480
593.0000000 0.9796334   0.9771920   0.9771920   0.9771920   0.9954760   0.9900000   0.9900000   0.9604000   0.9964205   0.9849622   0.8880770   0.9003610
594.0000000 0.9797240   0.9769820   0.9769820   0.9769820   0.9950490   0.9900000   0.9900000   0.9604000   0.9964541   0.9849622   0.8880770   0.9002820
595.0000000 0.9798146   0.9767970   0.9767970   0.9767970   0.9944260   0.9900000   0.9900000   0.9604000   0.9964877   0.9849622   0.8880770   0.9002100
596.0000000 0.9799013   0.9766380   0.9766380   0.9766380   0.9937340   0.9900000   0.9900000   0.9604000   0.9965212   0.9849622   0.8880770   0.9001470
597.0000000 0.9799880   0.9765070   0.9765070   0.9765070   0.9931050   0.9900000   0.9900000   0.9604000   0.9965548   0.9849622   0.8880770   0.9000940
598.0000000 0.9800746   0.9764070   0.9764070   0.9764070   0.9926680   0.9900000   0.9900000   0.9604000   0.9965884   0.9849622   0.8880770   0.9000510
599.0000000 0.9801613   0.9763380   0.9763380   0.9763380   0.9926590   0.9900000   0.9900000   0.9604000   0.9966219   0.9849622   0.8880770   0.9000200
600.0000000 0.9802441   0.9763010   0.9763010   0.9763010   0.9928420   0.9900000   0.9900000   0.9604000   0.9966555   0.9849622   0.8880770   0.9000000
601.0000000 0.9803268   0.9762670   0.9762670   0.9762670   0.9931500   0.9900000   0.9900000   0.9604000   0.9966555   0.9849622   0.8880770   0.9000820
602.0000000 0.9804135   0.9762650   0.9762650   0.9762650   0.9935140   0.9900000   0.9900000   0.9604000   0.9966555   0.9849622   0.8880770   0.9001700
603.0000000 0.9804963   0.9762960   0.9762960   0.9762960   0.9938660   0.9900000   0.9900000   0.9604000   0.9966555   0.9849622   0.8880770   0.9002620
604.0000000 0.9805791   0.9763580   0.9763580   0.9763580   0.9942110   0.9900000   0.9900000   0.9604000   0.9966555   0.9849622   0.8880770   0.9003580
605.0000000 0.9806579   0.9764500   0.9764500   0.9764500   0.9945450   0.9900000   0.9900000   0.9604000   0.9966555   0.9849622   0.8880770   0.9004600
606.0000000 0.9807407   0.9765710   0.9765710   0.9765710   0.9948020   0.9900000   0.9900000   0.9604000   0.9966555   0.9849622   0.8880770   0.9005660
607.0000000 0.9808195   0.9767180   0.9767180   0.9767180   0.9949180   0.9900000   0.9900000   0.9604000   0.9966555   0.9849622   0.8880770   0.9006780
608.0000000 0.9808944   0.9768910   0.9768910   0.9768910   0.9948270   0.9900000   0.9900000   0.9604000   0.9966555   0.9849622   0.8880770   0.9007940
609.0000000 0.9809733   0.9770860   0.9770860   0.9770860   0.9942620   0.9900000   0.9900000   0.9604000   0.9966555   0.9849622   0.8880770   0.9009140
610.0000000 0.9810482   0.9773010   0.9773010   0.9773010   0.9934900   0.9900000   0.9900000   0.9604000   0.9966555   0.9849622   0.8880760   0.9010400
611.0000000 0.9811231   0.9775340   0.9775340   0.9775340   0.9926660   0.9900000   0.9900000   0.9604000   0.9966555   0.9849622   0.8880760   0.9011700
612.0000000 0.9811980   0.9777820   0.9777820   0.9777820   0.9919480   0.9900000   0.9900000   0.9604000   0.9966555   0.9849622   0.8880760   0.9013060
613.0000000 0.9812730   0.9780420   0.9780420   0.9780420   0.9914890   0.9900000   0.9900000   0.9604000   0.9966555   0.9849622   0.8880760   0.9014460
614.0000000 0.9813440   0.9783130   0.9783130   0.9783130   0.9915570   0.9900000   0.9900000   0.9604000   0.9966555   0.9849622   0.8880760   0.9015900
615.0000000 0.9814189   0.9785910   0.9785910   0.9785910   0.9918840   0.9900000   0.9900000   0.9604000   0.9966555   0.9849622   0.8880760   0.9017400
616.0000000 0.9814859   0.9788740   0.9788740   0.9788740   0.9923850   0.9900000   0.9900000   0.9604000   0.9966555   0.9849622   0.8880760   0.9018940
617.0000000 0.9815569   0.9791600   0.9791600   0.9791600   0.9929730   0.9900000   0.9900000   0.9604000   0.9966555   0.9849622   0.8880760   0.9020540
618.0000000 0.9816240   0.9794480   0.9794480   0.9794480   0.9935620   0.9900000   0.9900000   0.9604000   0.9966555   0.9849622   0.8880760   0.9022180
619.0000000 0.9816911   0.9797340   0.9797340   0.9797340   0.9941700   0.9900000   0.9900000   0.9604000   0.9966555   0.9849622   0.8880760   0.9023860
620.0000000 0.9817581   0.9800190   0.9800190   0.9800190   0.9947790   0.9900000   0.9900000   0.9604000   0.9966555   0.9849622   0.8880760   0.9025600
621.0000000 0.9818252   0.9802990   0.9802990   0.9802990   0.9952920   0.9900000   0.9900000   0.9604000   0.9966555   0.9849622   0.8880760   0.9027380
622.0000000 0.9818923   0.9805740   0.9805740   0.9805740   0.9956140   0.9900000   0.9900000   0.9604000   0.9966555   0.9849622   0.8880760   0.9029220
623.0000000 0.9819554   0.9808430   0.9808430   0.9808430   0.9956500   0.9900000   0.9900000   0.9604000   0.9966555   0.9849622   0.8880760   0.9031100
624.0000000 0.9820185   0.9811050   0.9811050   0.9811050   0.9951500   0.9900000   0.9900000   0.9604000   0.9966555   0.9849622   0.8880760   0.9033020
625.0000000 0.9820817   0.9813580   0.9813580   0.9813580   0.9943630   0.9900000   0.9900000   0.9604000   0.9966555   0.9849622   0.8880760   0.9035000
626.0000000 0.9821448   0.9816020   0.9816020   0.9816020   0.9934380   0.9900000   0.9900000   0.9604000   0.9966555   0.9849622   0.8880760   0.9037020
627.0000000 0.9822040   0.9818370   0.9818370   0.9818370   0.9925210   0.9900000   0.9900000   0.9604000   0.9966555   0.9849622   0.8880760   0.9039100
628.0000000 0.9822632   0.9820610   0.9820610   0.9820610   0.9917610   0.9900000   0.9900000   0.9604000   0.9966555   0.9849622   0.8880760   0.9041220
629.0000000 0.9823224   0.9822750   0.9822750   0.9822750   0.9913060   0.9900000   0.9900000   0.9604000   0.9966555   0.9849622   0.8880760   0.9043380
630.0000000 0.9823777   0.9824770   0.9824770   0.9824770   0.9910090   0.9900000   0.9900000   0.9604000   0.9966555   0.9849622   0.8880760   0.9045600
631.0000000 0.9824369   0.9826690   0.9826690   0.9826690   0.9908770   0.9900000   0.9900000   0.9604000   0.9966555   0.9849622   0.8880760   0.9047860
632.0000000 0.9824921   0.9828490   0.9828490   0.9828490   0.9909170   0.9900000   0.9900000   0.9604000   0.9966555   0.9849622   0.8880760   0.9050180
633.0000000 0.9825474   0.9830170   0.9830170   0.9830170   0.9911400   0.9900000   0.9900000   0.9604000   0.9966555   0.9849622   0.8880760   0.9052540
634.0000000 0.9825987   0.9831740   0.9831740   0.9831740   0.9916580   0.9900000   0.9900000   0.9604000   0.9966555   0.9849622   0.8880760   0.9054940
635.0000000 0.9826540   0.9833190   0.9833190   0.9833190   0.9923570   0.9900000   0.9900000   0.9604000   0.9966555   0.9849622   0.8880760   0.9057400
636.0000000 0.9827053   0.9834530   0.9834530   0.9834530   0.9931140   0.9900000   0.9900000   0.9604000   0.9966555   0.9849622   0.8880760   0.9059900
637.0000000 0.9827566   0.9835740   0.9835740   0.9835740   0.9938020   0.9900000   0.9900000   0.9604000   0.9966555   0.9849622   0.8880760   0.9062460
638.0000000 0.9828040   0.9836840   0.9836840   0.9836840   0.9942970   0.9900000   0.9900000   0.9604000   0.9966555   0.9849622   0.8880760   0.9065060
639.0000000 0.9828553   0.9837820   0.9837820   0.9837820   0.9944080   0.9900000   0.9900000   0.9604000   0.9966555   0.9849622   0.8880760   0.9067700
640.0000000 0.9829027   0.9838690   0.9838690   0.9838690   0.9943260   0.9900000   0.9900000   0.9604000   0.9966555   0.9849622   0.8880760   0.9070400
641.0000000 0.9829501   0.9839440   0.9839440   0.9839440   0.9941020   0.9900000   0.9900000   0.9604000   0.9966555   0.9849622   0.8880760   0.9073140
642.0000000 0.9830014   0.9840070   0.9840070   0.9840070   0.9937890   0.9900000   0.9900000   0.9604000   0.9966555   0.9849622   0.8880760   0.9075940
643.0000000 0.9830488   0.9840590   0.9840590   0.9840590   0.9934370   0.9900000   0.9900000   0.9604000   0.9966555   0.9849622   0.8880760   0.9078780
644.0000000 0.9830923   0.9841000   0.9841000   0.9841000   0.9930350   0.9900000   0.9900000   0.9604000   0.9966555   0.9849622   0.8880760   0.9081660
645.0000000 0.9831397   0.9841300   0.9841300   0.9841300   0.9925940   0.9900000   0.9900000   0.9604000   0.9966555   0.9849622   0.8880760   0.9084600
646.0000000 0.9831831   0.9841480   0.9841480   0.9841480   0.9921880   0.9900000   0.9900000   0.9604000   0.9966555   0.9849622   0.8880760   0.9087580
647.0000000 0.9832266   0.9841550   0.9841550   0.9841550   0.9918910   0.9900000   0.9900000   0.9604000   0.9966555   0.9849622   0.8880760   0.9090620
648.0000000 0.9832700   0.9841510   0.9841510   0.9841510   0.9917770   0.9900000   0.9900000   0.9604000   0.9966555   0.9849622   0.8880760   0.9093700
649.0000000 0.9833095   0.9841370   0.9841370   0.9841370   0.9920150   0.9900000   0.9900000   0.9604000   0.9966555   0.9849622   0.8880760   0.9096820
650.0000000 0.9833490   0.9841110   0.9841110   0.9841110   0.9924350   0.9900000   0.9900000   0.9604000   0.9966555   0.9849622   0.8880760   0.9100000
651.0000000 0.9833885   0.9840950   0.9840950   0.9840950   0.9929500   0.9900000   0.9900000   0.9604000   0.9966555   0.9849622   0.8880760   0.9103100
652.0000000 0.9834280   0.9840690   0.9840690   0.9840690   0.9934750   0.9900000   0.9900000   0.9604000   0.9966555   0.9849622   0.8880760   0.9106260
653.0000000 0.9834635   0.9840320   0.9840320   0.9840320   0.9939200   0.9900000   0.9900000   0.9604000   0.9966555   0.9849622   0.8880760   0.9109480
654.0000000 0.9835030   0.9839860   0.9839860   0.9839860   0.9942510   0.9900000   0.9900000   0.9604000   0.9966555   0.9849622   0.8880760   0.9112760
655.0000000 0.9835347   0.9839290   0.9839290   0.9839290   0.9945030   0.9900000   0.9900000   0.9604000   0.9966555   0.9849622   0.8880760   0.9116100
656.0000000 0.9835702   0.9838620   0.9838620   0.9838620   0.9946400   0.9900000   0.9900000   0.9604000   0.9966555   0.9849622   0.8880760   0.9119490
657.0000000 0.9836058   0.9837860   0.9837860   0.9837860   0.9946270   0.9900000   0.9900000   0.9604000   0.9966555   0.9849622   0.8880760   0.9122940
658.0000000 0.9836374   0.9837000   0.9837000   0.9837000   0.9944280   0.9900000   0.9900000   0.9604000   0.9966555   0.9849622   0.8880760   0.9126450
659.0000000 0.9836650   0.9836040   0.9836040   0.9836040   0.9939130   0.9900000   0.9900000   0.9604000   0.9966555   0.9849622   0.8880760   0.9130000
660.0000000 0.9836966   0.9834980   0.9834980   0.9834980   0.9932120   0.9900000   0.9900000   0.9604000   0.9966555   0.9849622   0.8880760   0.9133600
661.0000000 0.9837282   0.9833830   0.9833830   0.9833830   0.9924300   0.9900000   0.9900000   0.9604000   0.9966555   0.9849622   0.8880760   0.9137250
662.0000000 0.9837559   0.9832590   0.9832590   0.9832590   0.9916730   0.9900000   0.9900000   0.9604000   0.9966555   0.9849622   0.8880760   0.9140950
663.0000000 0.9837875   0.9831260   0.9831260   0.9831260   0.9910470   0.9900000   0.9900000   0.9604000   0.9966555   0.9849622   0.8880760   0.9144690
